x_Axis:Wavelength (nm)	y_Axis:Absorbance
2610.4394830578613	2.93376699066768
2594.946610449213	2.4890773816688325
2579.63655222354	2.4113375431139294
2564.506091572073	2.628102309450451
2549.552086716744	3.234944135444897
2534.771468735298	3.1641469180824258
2520.1612394616154	2.6515050701582155
2505.71846945823	2.507204581307647
2491.440296058174	2.6340812601489945
2477.3239214733817	2.9075138712683084
2463.366610967046	2.7299203962234033
2449.5656910874045	2.3804238829140196
2435.918547960569	2.1990057893366197
2422.4226256401016	2.1220659844550953
2409.07542451116	2.0329998061599257
2395.874499747102	1.8752258298663107
2382.817459816563	1.7086259995658302
2369.901965039084	1.5833119764271806
2357.125726187461	1.4952204300706946
2344.486503135057	1.417887430727842
2331.9821035464056	1.3369232658546721
2319.6103816094937	1.2629830760080538
2307.369236808184	1.2115663467334663
2295.2566127333002	1.1817945598735178
2283.2704959309704	1.1525882225435204
2271.408914786862	1.0995006977178818
2259.669938445016	1.0238986357522832
2248.0516757600394	0.9493077627752037
2236.5522742814464	0.8946209773332804
2225.1699192690285	0.8664370158870149
2213.9028327381225	0.8618034149399584
2202.749272533749	0.8708668568754121
2191.7075314325916	0.8843037937528806
2180.7759362718552	0.8996847387504061
2169.9528471040567	0.9194681661480644
2159.2366563768715	0.946439786855288
2148.6257881371516	0.9813020890901911
2138.1186972583046	1.023086986031889
2127.7138686902294	1.071621732244315
2117.409816731049	1.1287054252148216
2107.2050843198963	1.1963587802506026
2097.09824235006	1.2744041017882217
2087.087889001796	1.3601297801598484
2077.1726490941605	1.4504215154430078
2067.351173455229	1.5438448434515628
2057.622138310099	1.6419729141710135
2047.9842446860946	1.7512445912854886
2038.4362178346028	1.8808292658404326
2028.9768066690156	2.028952558332213
2019.6047832182442	2.1649476232758267
2010.3189420953101	2.2551065362144316
2001.1180999805292	2.3375379422757425
1992.0010951188249	2.4967119138791363
1982.9667868307197	2.731876812402988
1974.014055036568	2.7153931433087592
1965.141799793631	2.479705754497833
1956.3489408455678	2.3850498889537106
1947.634417183972	2.524336853712449
1938.9971866215762	2.832471062604172
1930.4362253767615	2.5550235759265734
1921.9505276690236	2.181111935228452
1913.5391053250632	2.0933710446496114
1905.2009873951772	2.35366649571626
1896.935219779631	2.6102186948093276
1888.740864864719	1.821441761903668
1880.6170011682134	1.1990548107878425
1872.5627229939287	0.8489859161670303
1864.5771400951194	0.6422402300474609
1856.6593773464595	0.5281316802678845
1848.8085744243372	0.47343393861657856
1841.023885495235	0.45047313118446936
1833.3044789119424	0.4385182330174054
1825.6495369173829	0.4290324372492279
1818.0582553558281	0.4236438119345543
1810.5298433912908	0.42445131100537026
1803.0635232328814	0.42810620266410593
1795.6585298669315	0.4288072211859081
1788.3141107956985	0.42466660281500457
1781.0295257824469	0.4181916004850365
1773.8040466027421	0.4106432547607838
1766.6369568017683	0.39951362729560463
1759.5275514575103	0.38292797376935395
1752.475136949629	0.36417953872889725
1745.4790307338703	0.349122550194501
1738.5385611218608	0.33984291099469244
1731.653067066133	0.33277211123205247
1724.8218979502394	0.3235072792649511
1718.0444133838162	0.31273479865656173
1711.3199830024566	0.3055878230728517
1704.6479862722695	0.30537601944481596
1698.0278122989903	0.30916126520055237
1691.4588596415217	0.30991531355744184
1684.940536129788	0.3037928469675485
1678.4722586867824	0.2940565613682423
1672.0534531547003	0.28683167476678195
1665.6835541250427	0.28509371156948193
1659.3620047725926	0.2872877912427846
1653.088256693156	0.2904981377350949
1646.8617697449683	0.2939575025234923
1640.6820118936737	0.2989348588309354
1634.5484590607807	0.30607069529076086
1628.4605949755041	0.3141572048799837
1622.4179110299067	0.3218031747093832
1616.4199061372508	0.329388120068554
1610.466086593486	0.33840024566424487
1604.5559659417816	0.34927617978417586
1598.6890648400317	0.3609287035896685
1592.864910931261	0.37257645999849204
1587.0830387168469	0.38512592444724514
1581.3429894324966	0.3999303523291232
1575.6443109269032	0.41669919058387916
1569.9865575430206	0.4337219389336135
1564.3692900018816	0.4503976016886703
1558.7920752889047	0.46848372623910206
1553.254486542623	0.48999350798199687
1547.7561029457775	0.5145173645916529
1542.2965096187138	0.5397858296750406
1536.8752975150292	0.5651082936557671
1531.4920633194092	0.592890876471462
1526.146409347609	0.6257099239501926
1520.8379434485182	0.6628343036186329
1515.5662789082621	0.7011990863101459
1510.3310343562944	0.7401513508398118
1505.1318336734264	0.7831490404242919
1499.9683059017495	0.8330017783939894
1494.8400851564056	0.8867024517441578
1489.7468105391636	0.9377882594402549
1484.688126053753	0.9851646071301708
1479.66368052292	1.0352900705454218
1474.6731275071584	1.0917013784763072
1469.7161252250833	1.1451165594889403
1464.792336475404	1.180020478858701
1459.901428560458	1.1945552254458973
1455.043073211276	1.202707982872019
1450.2169465141337	1.213315972976801
1445.4227288385644	1.2193340119854894
1440.6601047667923	1.2105284251727355
1435.9287630245562	1.1894930960412935
1431.2283964132937	1.165388016900438
1426.5587017436512	1.1381788498468288
1421.919379770293	1.0988281148499213
1417.3101351279759	1.0422738524701245
1412.7306762688659	0.9710083168515389
1408.1807154010642	0.8856351020522026
1403.6599684283176	0.7832891038362945
1399.1681548908875	0.6675532554813544
1394.7049979075496	0.5512950564683997
1390.270224118701	0.4482458556436739
1385.8635636305476	0.3665716984855635
1381.4847499603522	0.3079835325918239
1377.1335199827145	0.26879835741397007
1372.8096138768665	0.24263772536752698
1368.5127750749525	0.22409531886158338
1364.2427502112837	0.21035062611377595
1359.9992890725352	0.20001505608575343
1355.7821445488707	0.19152459815786216
1351.5910725859753	0.18315985291805464
1347.425832137973	0.1742249451238912
1343.2861851212133	0.16526574455857387
1339.171896368907	0.156903361213596
1335.0827335865933	0.14893225157872506
1331.01846730842	0.14081123712955515
1326.978870854219	0.13273333765328485
1322.9637202873628	0.12568222776138072
1318.9727943733826	0.12030884986122674
1315.0058745393337	0.11610674223821037
1311.0627448338917	0.11205874630284286
1307.1431918881628	0.10795445566047804
1303.2470048772004	0.10458408195891525
1299.373975482201	0.10257963593126501
