x_Axis:Wavelength (nm)	y_Axis:Absorbance
2610.4394830578613	3.4635673417411494
2594.946610449213	3.02819518393279
2579.63655222354	2.912189566558682
2564.506091572073	3.0913905710910994
2549.552086716744	3.624546507081443
2534.771468735298	3.7792091230972362
2520.1612394616154	3.2446072706731983
2505.71846945823	3.0972740208323897
2491.440296058174	3.280507689308378
2477.3239214733817	3.703162356455711
2463.366610967046	3.4153626580403014
2449.5656910874045	2.948562966575686
2435.918547960569	2.731462618985705
2422.4226256401016	2.6451310650763205
2409.07542451116	2.5539346259894216
2395.874499747102	2.390154794612685
2382.817459816563	2.215019374407363
2369.901965039084	2.082055121613409
2357.125726187461	1.9895180441606506
2344.486503135057	1.9123299047192943
2331.9821035464056	1.8353144973502957
2319.6103816094937	1.767098460317444
2307.369236808184	1.7223949023277683
2295.2566127333002	1.7002127818849764
2283.2704959309704	1.676645980729419
2271.408914786862	1.6218113260855092
2259.669938445016	1.5372854972900818
2248.0516757600394	1.452908137965587
2236.5522742814464	1.3921699026819467
2225.1699192690285	1.3629827965410755
2213.9028327381225	1.3610531411049969
2202.749272533749	1.373226521132637
2191.7075314325916	1.3879183532813173
2180.7759362718552	1.4035169758322836
2169.9528471040567	1.4245494024753285
2159.2366563768715	1.4545807621942928
2148.6257881371516	1.4929126642830837
2138.1186972583046	1.5365553382193284
2127.7138686902294	1.5855108482688849
2117.409816731049	1.6441091692224952
2107.2050843198963	1.7162903796228335
2097.09824235006	1.8004914342427198
2087.087889001796	1.8901113284298448
2077.1726490941605	1.9806899266588638
2067.351173455229	2.0751460023267922
2057.622138310099	2.180021604582298
2047.9842446860946	2.2986332050842875
2038.4362178346028	2.428479823531881
2028.9768066690156	2.5618673673144046
2019.6047832182442	2.6864591505347826
2010.3189420953101	2.797899227645332
2001.1180999805292	2.924054996919587
1992.0010951188249	3.1130247254995718
1982.9667868307197	3.3473520183490977
1974.014055036568	3.347846958702405
1965.141799793631	3.1560836842080855
1956.3489408455678	3.1240368204734468
1947.634417183972	3.425497434480762
1938.9971866215762	4.219416481788589
1930.4362253767615	3.5338810746876184
1921.9505276690236	2.988691090593124
1913.5391053250632	2.937663566656429
1905.2009873951772	3.1614759921390374
1896.935219779631	2.9388325746800477
1888.740864864719	2.5498462300638587
1880.6170011682134	1.8298580878803108
1872.5627229939287	1.4694267271427308
1864.5771400951194	1.2627732734044657
1856.6593773464595	1.1521759837227115
1848.8085744243372	1.1027469714854874
1841.023885495235	1.085520954067362
1833.3044789119424	1.0785815895269395
1825.6495369173829	1.0732221532964146
1818.0582553558281	1.0719987115837981
1810.5298433912908	1.0777232079303558
1803.0635232328814	1.0866760414655345
1795.6585298669315	1.092231718542329
1788.3141107956985	1.0924747604568914
1781.0295257824469	1.0907437381957052
1773.8040466027421	1.088629044748788
1766.6369568017683	1.0826797650399116
1759.5275514575103	1.069998020993254
1752.475136949629	1.0543744607088699
1745.4790307338703	1.0431372574936417
1738.5385611218608	1.0389066855947555
1731.653067066133	1.0368993906765511
1724.8218979502394	1.0311506565991153
1718.0444133838162	1.022673070468778
1711.3199830024566	1.0186247133788142
1704.6479862722695	1.0235727167846336
1698.0278122989903	1.0334155331703627
1691.4588596415217	1.0384182755928557
1684.940536129788	1.0335812896011405
1678.4722586867824	1.0239971719244045
1672.0534531547003	1.0181087862098308
1665.6835541250427	1.019271066531595
1659.3620047725926	1.0247099500669492
1653.088256693156	1.0306140092959268
1646.8617697449683	1.0367361634278354
1640.6820118936737	1.0452680927088394
1634.5484590607807	1.0566864002159242
1628.4605949755041	1.068705654982584
1622.4179110299067	1.0794855381201978
1616.4199061372508	1.0901961433381573
1610.466086593486	1.1030864114771348
1604.5559659417816	1.1181040610797148
1598.6890648400317	1.133091220016638
1592.864910931261	1.14734365662394
1587.0830387168469	1.1631048750073973
1581.3429894324966	1.1823763525336388
1575.6443109269032	1.2035721312359045
1569.9865575430206	1.2231686872751368
1564.3692900018816	1.240840020221126
1558.7920752889047	1.2606092109431273
1553.254486542623	1.2857186391425075
1547.7561029457775	1.314184153060107
1542.2965096187138	1.3412843712944749
1536.8752975150292	1.3665299939874394
1531.4920633194092	1.395143774682778
1526.146409347609	1.431064601232554
1520.8379434485182	1.4711194334475421
1515.5662789082621	1.5088849471320613
1510.3310343562944	1.5445221271920644
1505.1318336734264	1.5860713657813492
1499.9683059017495	1.6386476000629329
1494.8400851564056	1.6958583560243519
1489.7468105391636	1.7464677569168061
1484.688126053753	1.7913132158523943
1479.66368052292	1.8432364543677315
1474.6731275071584	1.9053014930046395
1469.7161252250833	1.9573812334714773
1464.792336475404	1.9770158418469124
1459.901428560458	1.9773961054289857
1455.043073211276	1.9923373267816822
1450.2169465141337	2.0290337970835473
1445.4227288385644	2.056265060597262
1440.6601047667923	2.045053267999438
1435.9287630245562	2.015932812847351
1431.2283964132937	2.0035272042371846
1426.5587017436512	2.005418327615331
1421.919379770293	1.9834724638205272
1417.3101351279759	1.9146664759159322
1412.7306762688659	1.8251948601969317
1408.1807154010642	1.7414825018120006
1403.6599684283176	1.6579990486198142
1399.1681548908875	1.5596990383506721
1394.7049979075496	1.4502688167441746
1390.270224118701	1.3490087307465857
1385.8635636305476	1.270806963008178
1381.4847499603522	1.2178455979379166
1377.1335199827145	1.1833036388246767
1372.8096138768665	1.1595272095360294
1368.5127750749525	1.143434082465322
1364.2427502112837	1.1347107616017467
1359.9992890725352	1.1308532670928706
1355.7821445488707	1.1262361131906602
1351.5910725859753	1.1173793803361
1347.425832137973	1.1070236551886168
1343.2861851212133	1.1002697545125109
1339.171896368907	1.098255158804823
1335.0827335865933	1.0971484172911787
1331.01846730842	1.0933145624904506
1326.978870854219	1.0878528713113318
1322.9637202873628	1.0841223477226882
1318.9727943733826	1.082577062032837
1315.0058745393337	1.0804131146937905
1311.0627448338917	1.076377967401033
1307.1431918881628	1.0737332114949638
1303.2470048772004	1.0763461454749674
1299.373975482201	1.082924053850307
